Time (s),Binding (nm)
0.0,0.0
0.2,0.000348
0.4,0.003575
0.6,0.006771
0.8,0.006036
1.0,0.007332
1.2,0.009045
1.4,0.009446
1.6,0.009738
1.8,0.010947
2.0,0.011931
2.2,0.011289
2.4,0.011126
2.6,0.01195
2.8,0.012327
3.0,0.011868
3.2,0.012575
3.4,0.013545
3.6,0.013758
3.8,0.013994
4.0,0.014248
4.2,0.01495
4.4,0.016165
4.6,0.015708
4.8,0.016685
5.0,0.017024
5.2,0.016854
5.4,0.01647
5.6,0.016441
5.8,0.015376
6.0,0.015347
6.2,0.015176
6.4,0.015512
6.6,0.015051
6.8,0.01633
7.0,0.017303
7.2,0.018079
7.4,0.018523
7.6,0.019744
7.8,0.019629
8.0,0.019263
8.2,0.019715
8.4,0.019047
8.6,0.018893
8.8,0.018595
9.0,0.020018
9.2,0.020158
9.4,0.020693
9.6,0.020979
9.8,0.021788
10.0,0.02016
10.2,0.02026
10.4,0.019964
10.6,0.020208
10.8,0.019622
11.0,0.021331
11.2,0.02063
11.4,0.020837
11.6,0.021215
11.8,0.021927
12.0,0.021803
12.2,0.022811
12.4,0.023765
12.6,0.024029
12.8,0.024229
13.0,0.023382
13.2,0.023483
13.4,0.022919
13.6,0.023168
13.8,0.023331
14.0,0.024461
14.2,0.02417
14.4,0.024412
14.6,0.024389
14.8,0.0245
15.0,0.024942
15.2,0.024849
15.4,0.024763
15.6,0.025311
15.8,0.025159
16.0,0.025493
16.2,0.026561
16.4,0.026832
16.6,0.026287
16.8,0.026102
17.0,0.02432
17.2,0.02467
17.4,0.023748
17.6,0.023893
17.8,0.024859
18.0,0.026562
18.2,0.02611
18.4,0.026842
18.6,0.026293
18.8,0.025745
19.0,0.025736
19.2,0.025741
19.4,0.026421
19.6,0.027357
19.8,0.027111
20.0,0.027059
20.2,0.02673
20.4,0.02659
20.6,0.027157
20.8,0.027008
21.0,0.026585
21.2,0.026612
21.4,0.02735
21.6,0.025171
21.8,0.025764
22.0,0.026004
22.2,0.026023
22.4,0.025566
22.6,0.02812
22.8,0.02765
23.0,0.027703
23.2,0.029
23.4,0.028378
23.6,0.027598
23.8,0.028585
24.0,0.028031
24.2,0.027866
24.4,0.028283
24.6,0.028806
24.8,0.02812
25.0,0.02906
25.2,0.029121
25.4,0.029708
25.6,0.028477
25.8,0.029632
26.0,0.029766
26.2,0.029424
26.4,0.029583
26.6,0.030118
26.8,0.029713
27.0,0.029516
27.2,0.028833
27.4,0.028417
27.6,0.027351
27.8,0.02784
28.0,0.028195
28.2,0.028663
28.4,0.029059
28.6,0.030137
28.8,0.028664
29.0,0.029163
29.2,0.028979
29.4,0.028918
29.6,0.029593
29.8,0.030595
30.0,0.030365
30.2,0.030942
30.4,0.030957
30.6,0.03149
30.8,0.031701
31.0,0.030865
31.2,0.03097
31.4,0.030379
31.6,0.029589
31.8,0.029177
32.0,0.030091
32.2,0.029565
32.4,0.030471
32.6,0.031164
32.8,0.030959
33.0,0.031049
33.2,0.031884
33.4,0.031962
33.6,0.031018
33.8,0.031406
34.0,0.031482
34.2,0.031614
34.4,0.030743
34.6,0.031471
34.8,0.032637
35.0,0.031872
35.2,0.031542
35.4,0.032278
35.6,0.0329
35.8,0.032155
36.0,0.032556
36.2,0.033426
36.4,0.033386
36.6,0.032368
36.8,0.032446
37.0,0.032161
37.2,0.031174
37.4,0.030505
37.6,0.030705
37.8,0.029955
38.0,0.030724
38.2,0.031001
38.4,0.032477
38.6,0.032126
38.8,0.033444
39.0,0.033703
39.2,0.034121
39.4,0.033399
39.6,0.034371
39.8,0.03387
40.0,0.033852
40.2,0.033884
40.4,0.033671
40.6,0.034046
40.8,0.033533
41.0,0.033225
41.2,0.033133
41.4,0.033311
41.6,0.033975
41.8,0.035234
42.0,0.034792
42.2,0.034946
42.4,0.03551
42.6,0.035181
42.8,0.033772
43.0,0.03414
43.2,0.034366
43.4,0.034561
43.6,0.034613
43.8,0.035029
44.0,0.034565
44.2,0.034549
44.4,0.034014
44.6,0.033683
44.8,0.034276
45.0,0.035502
45.2,0.036211
45.4,0.037567
45.6,0.03744
45.8,0.037877
46.0,0.03682
46.2,0.036126
46.4,0.034739
46.6,0.035013
46.8,0.034486
47.0,0.03581
47.2,0.035535
47.4,0.037132
47.6,0.03695
47.8,0.036801
48.0,0.036462
48.2,0.036828
48.4,0.035954
48.6,0.035631
48.8,0.036992
49.0,0.036712
49.2,0.036932
49.4,0.037025
49.6,0.037512
49.8,0.036812
50.0,0.036989
50.2,0.035939
50.4,0.03619
50.6,0.036079
50.8,0.034742
51.0,0.034367
51.2,0.034748
51.4,0.034843
51.6,0.035652
51.8,0.0368
52.0,0.037715
52.2,0.038299
52.4,0.038203
52.6,0.036979
52.8,0.03718
53.0,0.036036
53.2,0.036166
53.4,0.035888
53.6,0.036649
53.8,0.036405
54.0,0.036677
54.2,0.03734
54.4,0.038073
54.6,0.037378
54.8,0.037503
55.0,0.036832
55.2,0.035876
55.4,0.034918
55.6,0.035935
55.8,0.035975
56.0,0.03691
56.2,0.037162
56.4,0.038504
56.6,0.037737
56.8,0.037597
57.0,0.037508
57.2,0.037198
57.4,0.035393
57.6,0.03565
57.8,0.036004
58.0,0.036797
58.2,0.036879
58.4,0.037818
58.6,0.037794
58.8,0.038415
59.0,0.038321
59.2,0.038902
59.4,0.039034
59.6,0.039421
59.8,0.039692
60.0,0.039103
60.2,0.039343
60.4,0.039576
60.6,0.039386
60.8,0.03842
61.0,0.039271
61.2,0.039319
61.4,0.038491
61.6,0.038682
61.8,0.038183
62.0,0.037681
62.2,0.037114
62.4,0.038738
62.6,0.038591
62.8,0.039104
63.0,0.038618
63.2,0.03886
63.4,0.039161
63.6,0.039291
63.8,0.040078
64.0,0.040715
64.2,0.041551
64.4,0.038915
64.6,0.039104
64.8,0.038276
65.0,0.038367
65.2,0.037734
65.4,0.04077
65.6,0.04027
65.8,0.040697
66.0,0.040096
66.2,0.039538
66.4,0.038251
66.6,0.039186
66.8,0.0388
67.0,0.038952
67.2,0.040027
67.4,0.039422
67.6,0.038846
67.8,0.039461
68.0,0.040465
68.2,0.03936
68.4,0.039155
68.6,0.038712
68.8,0.039373
69.0,0.038388
69.2,0.039231
69.4,0.040429
69.6,0.041713
69.8,0.040357
70.0,0.041696
70.2,0.041984
70.4,0.041764
70.6,0.040531
70.8,0.041258
71.0,0.03955
71.2,0.039326
71.4,0.038971
71.6,0.039706
71.8,0.039282
72.0,0.040684
72.2,0.040462
72.4,0.041059
72.6,0.041936
72.8,0.042758
73.0,0.041798
73.2,0.042404
73.4,0.042224
73.6,0.041362
73.8,0.040844
74.0,0.04125
74.2,0.040782
74.4,0.040107
74.6,0.03976
74.8,0.039791
75.0,0.039557
75.2,0.039799
75.4,0.041125
75.6,0.041094
75.8,0.04109
76.0,0.041642
76.2,0.041742
76.4,0.040604
76.6,0.040739
76.8,0.041633
77.0,0.041061
77.2,0.040494
77.4,0.041532
77.6,0.041761
77.8,0.041955
78.0,0.04121
78.2,0.041264
78.4,0.040974
78.6,0.040927
78.8,0.039913
79.0,0.040808
79.2,0.041814
79.4,0.041254
79.6,0.04216
79.8,0.041782
80.0,0.042221
80.2,0.042025
80.4,0.041966
80.6,0.041025
80.8,0.041623
81.0,0.041382
81.2,0.041941
81.4,0.042212
81.6,0.042288
81.8,0.042625
82.0,0.042786
82.2,0.041527
82.4,0.040961
82.6,0.040274
82.8,0.039958
83.0,0.03999
83.2,0.040304
83.4,0.041685
83.6,0.042117
83.8,0.042368
84.0,0.042518
84.2,0.042479
84.4,0.041916
84.6,0.042329
84.8,0.042612
85.0,0.042579
85.2,0.043144
85.4,0.043518
85.6,0.043245
85.8,0.042716
86.0,0.041953
86.2,0.042986
86.4,0.042254
86.6,0.042913
86.8,0.04316
87.0,0.043299
87.2,0.042489
87.4,0.043051
87.6,0.042743
87.8,0.043203
88.0,0.044749
88.2,0.044481
88.4,0.043632
88.6,0.043601
88.8,0.043618
89.0,0.042728
89.2,0.042843
89.4,0.043482
89.6,0.043471
89.8,0.043531
90.0,0.043066
90.2,0.04287
90.4,0.042723
90.6,0.042855
90.8,0.042243
91.0,0.042256
91.2,0.04274
91.4,0.042463
91.6,0.042993
91.8,0.042997
92.0,0.043489
92.2,0.043791
92.4,0.043614
92.6,0.04361
92.8,0.043439
93.0,0.043789
93.2,0.043161
93.4,0.043889
93.6,0.043638
93.8,0.044038
94.0,0.043446
94.2,0.044165
94.4,0.043779
94.6,0.043699
94.8,0.043633
95.0,0.044814
95.2,0.044133
95.4,0.044386
95.6,0.045571
95.8,0.046241
96.0,0.045523
96.2,0.045315
96.4,0.044325
96.6,0.04284
96.8,0.042776
97.0,0.042641
97.2,0.041987
97.4,0.043186
97.6,0.042888
97.8,0.043329
98.0,0.043987
98.2,0.043789
98.4,0.044795
98.6,0.045913
98.8,0.044716
99.0,0.044047
99.2,0.04488
99.4,0.043985
99.6,0.04399
99.8,0.044103
100.0,0.044174
100.2,0.04479
100.4,0.045566
100.6,0.04462
100.8,0.044851
101.0,0.044885
101.2,0.04485
101.4,0.044594
101.6,0.044062
101.8,0.044264
102.0,0.044387
102.2,0.044089
102.4,0.043927
102.6,0.044655
102.8,0.044631
103.0,0.044267
103.2,0.044374
103.4,0.044187
103.6,0.04403
103.8,0.044286
104.0,0.045495
104.2,0.045679
104.4,0.044756
104.6,0.045173
104.8,0.044208
105.0,0.043346
105.2,0.043444
105.4,0.044815
105.6,0.044966
105.8,0.045754
106.0,0.045746
106.2,0.045366
106.4,0.044855
106.6,0.044966
106.8,0.04435
107.0,0.045079
107.2,0.044249
107.4,0.044817
107.6,0.044359
107.8,0.044707
108.0,0.044965
108.2,0.046387
108.4,0.045568
108.6,0.046302
108.8,0.046918
109.0,0.046374
109.2,0.046997
109.4,0.047478
109.6,0.047267
109.8,0.047735
110.0,0.047299
110.2,0.046766
110.4,0.047047
110.6,0.046859
110.8,0.046819
111.0,0.046991
111.2,0.046183
111.4,0.045651
111.6,0.045289
111.8,0.044365
112.0,0.044371
112.2,0.044812
112.4,0.045304
112.6,0.046107
112.8,0.046433
113.0,0.046515
113.2,0.046504
113.4,0.046249
113.6,0.046232
113.8,0.045799
114.0,0.045917
114.2,0.045865
114.4,0.046682
114.6,0.047107
114.8,0.047373
115.0,0.046618
115.2,0.04734
115.4,0.046327
115.6,0.045301
115.8,0.046111
116.0,0.04702
116.2,0.046387
116.4,0.045127
116.6,0.046156
116.8,0.045399
117.0,0.045494
117.2,0.045655
117.4,0.047198
117.6,0.046556
117.8,0.04629
118.0,0.04556
118.2,0.045225
118.4,0.045286
118.6,0.045212
118.8,0.044887
119.0,0.045412
119.2,0.045413
119.4,0.044874
119.6,0.044539
